File: data/small/Raman/sio2-f16.txt
-163.473	724
-144.68	725
-125.923	723
-107.203	725
-88.52	725
-69.8734	724
-51.2633	725
-32.6897	723
-14.1524	724
4.34848	774
22.8132	726
41.2417	725
59.6341	726
77.9905	1084
96.311	2213
114.596	1858
132.844	1923
151.058	1669
169.235	1652
187.377	1684
205.484	1917
223.555	1550
241.59	1618
259.591	1623
277.556	1793
295.487	1934
313.382	1881
331.242	1758
349.068	1524
366.859	1465
384.615	1466
402.336	1363
420.023	1389
437.676	1393
455.294	1247
472.878	1535
490.427	1402
507.943	2492
525.425	34406
542.872	2214
560.286	1641
577.666	1593
595.012	2192
612.325	1377
629.604	1310
646.85	1273
664.062	1249
681.241	1248
698.387	1204
715.5	1339
732.579	4319
749.626	2023
766.64	1495
783.621	1257
800.569	1228
817.485	1346
834.368	1245
851.219	1179
868.037	1146
884.823	1171
901.577	1176
918.299	1230
934.988	1789
951.646	2543
968.272	3247
984.866	2372
1001.43	1532
1017.96	1312
1034.46	1185
1050.93	1230
1067.36	1468
1083.77	1125
1100.14	1073
1116.48	1136
1132.8	1272
1149.08	1298
1165.33	1229
1181.55	1378
1197.73	3185
1213.89	1261
1230.02	1176
1246.12	1184
1262.18	1240
1278.22	1356
1294.22	1512
1310.2	3052
1326.15	3194
1342.06	2894
1357.95	2994
1373.8	2387
1389.63	1578
1405.43	1566
1421.19	1473
1436.93	1572
1452.64	2094
1468.32	3115
1483.97	4044
1499.59	1974
1515.18	2512
1530.74	4885
1546.27	3428
1561.78	2248
1577.25	1663
1592.7	1409
1608.12	1551
1623.51	1734
1638.87	1807
1654.2	1355
1669.51	1209
1684.78	1075
1700.03	1082
1715.25	1049
1730.45	1007
1745.61	1013
1760.75	977
1775.86	998
1790.94	989
1805.99	1014
1821.02	970
1836.02	965
1850.99	953
1865.93	953
1880.85	955
1895.74	996
1910.6	1012
1925.43	1028
1940.24	1013
1955.03	984
1969.78	967
1984.51	946
1999.21	952
2013.89	963
2028.53	977
2043.16	993
2057.75	1000
2072.32	1016
2086.86	1042
2101.38	1055
2115.87	1079
2130.34	1008
2144.78	991
2159.19	968
2173.58	962
2187.94	960
2202.28	988
2216.59	1003
2230.87	1020
2245.13	998
2259.37	1036
2273.58	1088
2287.76	1102
2301.92	1083
2316.06	996
2330.17	976
2344.25	945
2358.31	958
2372.34	967
2386.35	991
2400.34	993
2414.3	988
2428.24	992
2442.15	1007
2456.03	1023
2469.9	999
2483.74	1020
2497.55	1014
2511.34	1020
2525.11	972
2538.85	967
2552.57	960
2566.26	977
2579.93	977
2593.58	1007
2607.2	1012
2620.8	1035
2634.38	1079
2647.93	1104
2661.46	1136
2674.97	1084
2688.45	1116
2701.91	1088
2715.34	1088
2728.76	1115
2742.15	1061
2755.52	1048
2768.86	1045
2782.18	1079
2795.48	1095
2808.76	1073
2822.01	1083
2835.24	1109
2848.45	1164
2861.63	1172
2874.8	1167
2887.94	1239
2901.05	1264
2914.15	1226
2927.22	1162
2940.28	1118
2953.3	1097
2966.31	1106
2979.3	1073
2992.26	1056
3005.2	1067
3018.12	1067
3031.02	1082
3043.9	1091
3056.75	1141
3069.59	1183
3082.4	1174
3095.19	1129
3107.96	1063
3120.7	1027
3133.43	986
3146.14	975
3158.82	968
3171.48	957
3184.12	946
3196.74	943
3209.34	939
3221.92	943
3234.48	955
3247.02	944
3259.53	943
3272.03	924
3284.5	931
3296.96	920
3309.39	914
3321.8	936
3334.2	916
3346.57	919
3358.92	937
3371.25	936
3383.56	936
3395.86	929
3408.13	918
3420.38	919
3432.61	937
3444.82	923
3457.01	916
3469.18	927
3481.33	912
3493.46	913
3505.58	916
3517.67	919
3529.74	930
3541.79	928
3553.82	924
3565.84	923
3577.83	926
3589.81	937
3601.76	934
3613.7	941
3625.62	949
3637.51	933
3649.39	935
3661.25	934
3673.09	948
3684.91	944
3696.71	917
3708.5	935
3720.26	927
3732.01	935
3743.73	914
3755.44	926
3767.13	916
3778.8	935
3784.63	920